>compound DorzolamideHCl M+H
>formula C10H16N2O4S3
>parentmass 325.03449644409056
>ionization [M + H]+
>InChI InChI=1S/C10H16N2O4S3/c1-3-12-8-4-6(2)18(13,14)10-7(8)5-9(17-10)19(11,15)16/h5-6,8,12H,3-4H2,1-2H3,(H2,11,15,16)
>InChIKey IAVUPMFITXYVAF-UHFFFAOYSA-N
>smiles O=S(=O)(N)C=1SC2=C(C1)C(NCC)CC(C)S2(=O)=O

>ms2peaks
109.043495 8.5
119.074074 33.23214
122.019218 79.82048
123.023148 74.413239
133.008255 67.095589
134.018982 92.936378
134.273315 14.10771
134.353149 10.0625
134.579865 7.002976
135.025742 3454.000977
135.075821 15.89803
135.109634 17.5016
135.133392 13.64286
135.157623 36.755909
135.178421 13.0125
135.215302 38.279072
135.230408 22.0
135.273819 19.33333
135.421829 11.8125
135.437363 7.444853
135.488586 19.16827
135.505341 9.180147
136.073242 16.36058
136.138596 31.57579
136.241226 9.388889
136.442734 13.38007
136.52829 5.1875
136.593506 14.7875
136.763947 7.2
137.925903 11.5194
138.830307 10.26078
139.02298 119.759697
139.401382 6.4375
144.989899 56.38895
150.288849 10.0744
150.397751 24.39674
150.442398 15.15434
151.021423 1636.005981
151.074982 8.285714
151.117401 20.3125
151.172882 17.502501
151.186569 27.00893
151.275223 29.04735
152.051437 257.046814
152.23317 22.71076
152.943909 135.8172
152.970444 6.043269
152.980423 41.34444
153.033752 40.96983
153.990021 156.272903
154.962143 40.669449
154.983139 97.640907
155.115692 12.18015
155.515259 3.0625
155.96698 80.578217
156.107056 8.680555
170.951538 36.548908
172.971069 26.008329
196.406311 21.76959
197.735535 13.72321
197.827667 26.728571
197.846344 50.070801
197.907761 20.112499
197.984146 36.715431
198.004425 113.1101
198.022385 80.70295
198.082169 31.6712
198.145828 8.502717
198.263367 14.00625
198.455093 36.63636
198.763351 11.15385
198.861435 5.104167
198.95108 82.619537
198.988052 12321.209961
199.050049 161.922195
199.067535 18.02841
199.086823 73.600166
199.122116 159.5439
199.147324 26.78072
199.173019 21.368059
199.208267 67.251053
199.259903 40.889488
199.278656 7.2
199.324051 52.61161
199.364426 43.352131
199.41127 19.117729
199.435837 5.503676
199.45813 69.837051
199.480118 32.512199
199.501801 11.64286
199.51445 6.004167
199.602905 16.08
199.799179 27.91032
199.883179 13.38007
200.068298 14.84698
200.424484 42.077591
200.626541 8.5625
201.731796 17.53125
202.930481 246.390793
209.962051 13.00893
211.032089 14.55357
213.882645 2.666667
213.914581 13.5125
214.610367 15.24493
214.665848 25.207109
214.713837 6.9
214.767899 43.852089
214.785614 62.636551
214.836151 28.632811
214.854568 17.625
214.886826 31.896879
214.915909 15.00133
214.957611 19.66667
215.006302 917.21698
215.078796 18.003679
215.104935 22.42215
215.145828 15.24493
215.232224 51.524731
215.416 10.74395
215.652313 20.334721
215.980927 39.375
216.014084 14964.69043
216.080261 11.0625
216.106705 29.08036
216.141525 11.5744
216.185974 70.32338
216.20816 13.08277
216.260864 57.004429
216.283875 26.56093
216.331451 29.130211
216.36882 82.432892
216.418274 10.8288
216.436356 30.63636
216.474579 47.064751
216.494873 46.65731
216.521927 27.64315
216.555908 30.66383
216.59848 62.825951
216.637039 59.128189
216.722412 35.756359
216.801666 19.67033
216.96077 15.52381
217.020477 114.132103
217.468307 31.82436
217.640442 42.520828
218.081024 21.03064
218.264282 31.0
218.948746 210.871902
219.102921 5.704167
219.339783 14.70455
219.915543 10.74013
219.949692 104.0
220.296738 23.69556
220.851791 20.0928
224.814316 9.001785
230.957458 24.016069
233.969803 217.474396
234.019318 13.50202
234.103363 4.083333
234.498535 12.57122
234.530502 12.52083
234.556976 6.006945
234.589951 5.333333
234.669357 14.69444
234.743774 16.640989
234.957291 27.503469
235.342224 7.004167
235.909424 99.761902
235.950348 2690.197021
235.992279 6.525
236.013916 23.52
236.02919 3.506944
236.050156 32.727821
236.094116 10.0
236.171036 7.840278
236.281097 25.16667
236.298676 23.334721
236.357391 21.38942
236.426407 13.66118
236.500534 24.04195
236.532639 9.007813
236.579529 10.72727
236.687836 20.025
236.863068 19.789471
237.668655 11.57143
237.828247 20.882811
244.0495 10.66118
246.927856 6.5
247.928299 83.025421
249.9272 7.5
259.056488 172.883408
259.177338 14.3
261.970917 62.274349
263.19931 15.59879
276.070282 11.34073
277.598846 32.485291
278.054962 9.529411
278.229248 28.777889
278.258514 38.094681
278.374115 10.74395
278.3974 29.36058
278.472778 20.027411
278.526398 10.78533
278.565674 19.59926
278.861877 9.002976
279.292358 25.0
279.51001 6.0625
279.976562 8970.658203
280.031677 12.48491
280.071259 28.508329
280.095184 34.50079
280.125366 76.638077
280.174866 29.000959
280.20578 55.389709
280.234589 33.51376
280.278625 99.990997
280.308044 98.582977
280.343781 38.57122
280.362762 31.49572
280.391846 20.001789
280.430603 45.873119
280.486176 35.629169
280.509399 18.484909
280.554382 8.525
280.648224 8.520833
280.751892 4.5625
280.828491 17.223221
280.911011 12.84028
281.033234 20.75762
282.06839 6.78125
282.337524 11.5125
282.39566 24.08333
283.37027 31.107759
316.339783 8.204166
320.120178 10.28409
321.189789 22.3025
322.445435 7.266448
322.778107 21.45274
322.839417 29.658791
322.86441 24.648769
322.908173 12.22917
322.941101 24.796049
322.975464 282.559509
323.00528 19.346149
323.021149 69.746178
323.03949 16.19565
323.06488 16.222219
323.14859 67.280731
323.199707 108.475899
323.219666 58.839611
323.258148 50.662079
323.296722 106.762802
323.313751 9.551136
323.370972 91.863663
323.389435 139.656403
323.440552 33.032139
323.496643 28.53632
323.55957 45.635422
323.623383 19.48031
323.671906 18.970591
323.926788 38.770119
324.004333 22.509609
324.040802 23.785721
324.082367 26.194441
324.166351 21.117649
324.315002 39.842991
324.347778 31.06612
324.474213 23.48818
324.594788 25.525
324.648407 7.567935
324.693237 11.68015
324.729614 8.104167
324.785767 22.0625
324.820465 48.650639
324.911072 14.1125
324.950623 77.001984
325.034973 65793.609375
325.131195 50.021679
325.261932 71.793251
325.30365 42.241852
325.361786 39.991852
325.479462 69.810303
325.494995 50.642769
325.522156 24.65789
325.575439 86.542999
325.636078 109.480202
325.653259 57.016941
325.691528 150.058807
325.733734 98.573753
325.790466 31.21574
325.815735 100.709
325.859497 124.651299
325.910858 13.36581
326.097992 13.54006
326.204803 16.04006
326.537842 12.52446
326.782074 24.25625
326.838318 18.422501
326.870819 8.860119
326.907074 8.225
327.018097 38.739288
327.121552 19.125
327.14212 26.679489
327.274139 42.527592
327.431183 7.074405
327.463837 7.502155
327.661499 7.75
327.721008 38.67202
328.294189 15.5125
328.373474 11.02083
328.726562 20.377979
329.191559 6.517857
329.399902 17.445311
329.455017 19.44643
329.802582 14.78125
330.425629 8.960227
330.567413 7.222222
330.995544 10.18056
331.073547 16.02471
331.352081 6.015625
331.643463 5.0
332.137817 6.00329
332.708649 12.25
335.213531 14.07031
337.428467 8.555921
628.192688 8.2
738.879456 11.77841
960.716553 13.33333
1173.591064 15.34028
1569.036865 19.339531
1669.518677 26.245689

>ms2peaks
102.046196 66.633163
102.071106 3.025
102.087036 29.263321
105.49472 8.222222
111.026382 58.738239
114.969925 36.099998
119.049263 4.580357
121.012367 79.128571
121.975136 4.025
123.025177 538.423279
123.876671 8.09375
123.961563 22.79167
125.03801 104.985199
126.308678 68.556023
126.968407 186.843307
127.97287 62.62331
130.961578 61.983479
133.323639 6.6125
134.01564 246.503296
134.2164 17.5375
134.248123 11.22727
134.273376 43.028622
134.303345 31.594231
134.332642 20.223221
134.341934 11.90833
134.357986 3.025
134.365128 48.839531
134.418472 11.08277
134.426544 10.54464
134.43837 47.220989
134.457123 8.9
134.489075 4.9375
134.559235 31.105261
134.636536 8.266447
134.656555 19.52083
134.733368 35.522011
134.781464 20.322371
134.956528 8.004167
134.992035 16.944441
135.026077 18997.710938
135.075974 268.579895
135.105042 93.670952
135.141571 67.714287
135.157837 54.61552
135.178497 8.390625
135.218399 38.51717
135.23204 77.105858
135.277725 86.001892
135.317337 109.976601
135.373871 38.719051
135.388229 19.55191
135.416565 15.01148
135.428879 26.51442
135.445343 12.09191
135.465149 17.08882
135.490219 21.6
135.510376 48.492538
135.541107 60.2257
135.570862 35.840801
135.590958 29.75806
135.613495 43.971149
135.623108 6.511364
135.647415 9.479365
135.750763 9.625
135.839951 7.375
135.95491 16.9375
136.005127 184.212601
136.033508 7505.023926
136.128586 8.673611
136.185684 39.90139
136.252213 33.0625
136.292206 11.64583
136.341629 12.78409
136.361633 23.021549
136.39743 17.132811
136.456482 15.42045
136.479309 16.06806
136.531342 5.625
136.650055 21.16667
136.70285 21.59524
136.764389 11.11539
136.785706 34.618351
137.02037 8.541667
137.035278 91.609879
137.472931 37.74794
137.648239 11.84073
137.722961 10.36012
137.754379 23.583019
138.155853 12.39803
138.420715 15.00114
138.969009 44.44083
139.020447 441.603485
139.067337 11.16071
139.959839 13.5
139.972748 139.980499
140.282089 32.70417
142.427902 12.58266
142.958313 50.816349
143.993011 24.50128
150.01767 80.322571
150.101974 31.142719
150.18222 10.03333
150.208725 26.79018
150.237839 11.98491
150.413696 3.166667
150.453537 15.98098
150.487991 10.3
150.497864 8.518146
150.591782 9.526786
150.674011 7.225
150.690063 20.23703
150.869446 21.25893
150.91127 18.582661
150.92897 12.3025
150.997925 54.525002
151.020798 13258.919922
151.072739 124.511803
151.08786 13.22782
151.106537 21.029409
151.148163 42.542011
151.172516 85.203003
151.193558 13.36012
151.215714 44.00481
151.224274 12.025
151.241379 18.605261
151.271072 53.654381
151.282166 34.129631
151.314117 14.50169
151.326645 49.057781
151.336334 22.26078
151.344147 7.533088
151.365479 12.00216
151.392334 31.296049
151.411682 35.311722
151.446747 14.84375
151.489944 41.210121
151.538406 45.384621
151.575317 25.01429
151.596695 9.723214
151.622879 66.990227
151.644104 62.727211
151.665848 52.306721
151.687576 26.53064
152.052094 823.345215
152.274216 17.786989
152.296448 14.0625
152.317307 18.822371
152.587616 16.633329
152.598358 8.265625
152.947327 340.179901
152.98259 517.781311
153.11618 13.66118
153.223618 23.444441
153.685547 8.518146
153.988052 323.517303
154.178009 30.157049
154.242401 17.630211
154.296402 4.375
154.961243 484.887787
155.560669 21.1066
155.930038 6.002717
155.969727 1128.090942
156.200592 21.64464
156.22757 23.0
156.275406 18.816891
156.319672 10.95
156.653946 24.00568
157.090225 6.890625
158.214005 17.654409
158.960129 44.375
162.046997 87.604156
170.957214 112.000603
171.948364 98.291107
172.968597 33.582989
178.067291 195.063202
179.993881 129.216293
180.034744 2.541667
180.068512 6.8375
181.982773 123.895699
190.990936 22.9375
191.430878 72.153488
195.694275 58.053291
197.76413 31.493259
197.779984 4.225
197.806534 10.24013
197.842911 6.0125
197.861938 44.119629
197.878143 30.16667
197.896255 29.81786
197.938538 68.344383
197.99411 34.586929
198.018692 99.721672
198.034317 26.673611
198.084534 13.69837
198.101746 25.02562
198.117844 43.166851
198.15152 10.00417
198.199936 55.69009
198.293167 21.03064
198.331955 15.42006
198.547592 14.67361
198.787949 14.40179
198.837814 86.883667
198.957764 55.82045
198.988312 34247.441406
199.047928 93.850327
199.067749 37.015629
199.108719 25.56653
199.147964 14.125
199.188553 33.612499
199.219391 80.170624
199.238327 81.634659
199.26857 75.732513
199.285904 116.642303
199.313034 9.513889
199.326233 97.35099
199.351547 141.483795
199.378128 19.222219
199.398193 45.007679
199.418533 43.812931
199.446152 25.4375
199.461121 51.7729
199.482788 17.071119
199.495651 45.385921
199.510178 24.525
199.524826 12.0125
199.559769 27.23077
199.581818 55.60606
199.593231 3.080357
199.605194 38.998859
199.628372 70.360352
199.642593 31.04891
199.671753 36.04348
199.705811 101.793198
199.810333 30.22917
199.91597 32.4375
200.031113 47.813869
200.156876 18.18527
200.468887 28.2722
200.646301 23.316891
201.060394 19.55714
201.178833 12.86029
201.203415 17.033331
201.338409 25.889709
201.578888 9.828804
201.737701 26.955641
201.751602 15.50133
201.946472 75.849823
202.092697 9.502717
202.9272 1089.42395
202.983871 4.083333
203.047928 15.74493
203.094193 7.389423
203.152161 32.031891
203.32106 13.55357
203.350693 13.06793
203.380585 6.6125
203.449677 6.008929
203.957382 5.583333
204.284042 8.5125
207.956146 48.296371
212.500458 10.47115
213.772812 17.5625
213.825287 29.52632
213.84697 15.5625
213.877167 10.01042
213.942902 10.53846
213.978516 4.583333
214.131226 12.0
214.162247 12.675
214.218948 9.890625
214.254471 7.1
214.431686 23.0084
214.534058 10.5625
214.592819 11.48098
214.620209 7.002976
214.723801 59.218418
214.770706 21.82703
214.827347 19.96154
214.849808 17.38007
214.884903 14.63315
214.926147 26.51786
215.006302 5544.812988
215.068253 28.10965
215.100754 81.717239
215.132278 20.71607
215.188232 13.50298
215.246368 16.945311
215.274506 17.92061
215.293503 15.32237
215.324112 51.1283
215.365158 20.0928
215.38028 9.666667
215.411774 23.28261
215.431778 30.49432
215.524216 77.969833
215.563904 31.06452
215.577621 7.8375
215.683319 18.140989
215.786346 30.8125
215.804977 55.939949
215.845886 9.898026
215.880905 14.00189
215.910629 33.716221
216.014664 12685.849609
216.076599 74.41848
216.134018 46.766312
216.171677 19.14286
216.217636 45.86161
216.265961 87.332809
216.282364 42.57917
216.341248 11.00368
216.371613 47.332081
216.402847 22.58173
216.428177 12.11765
216.453659 8.7
216.482498 34.657742
216.547577 35.057949
216.592041 34.112499
216.621597 12.50298
216.648834 6.555555
216.67308 13.55114
216.689728 54.08812
216.709793 80.648514
216.749084 5.0
216.820328 36.441181
216.919785 21.83675
217.51474 9.828804
217.576523 24.66943
217.611893 17.52083
217.858444 7.05
217.917252 19.19556
218.089569 16.004999
218.268829 18.76078
218.60878 10.56618
218.946732 1200.312988
219.032349 3.25
219.061447 59.590069
219.077271 16.003679
219.370697 5.505682
219.411926 11.53811
219.504684 7.024457
219.628403 6.082237
219.706696 5.541667
219.850159 10.0
220.078873 28.70417
221.248642 19.847219
221.376526 7.142857
222.7742 7.625
223.408249 7.266448
223.793121 10.56793
223.951691 120.977402
224.090836 14.11141
224.298218 7.5
231.01918 38.04343
233.968048 304.290192
234.035278 4.5
234.542023 13.11539
234.568039 8.140625
234.583771 10.0
234.603592 20.944851
234.65155 59.487572
234.757233 19.071119
234.845367 20.02083
234.876923 7.0
234.999573 5.0625
235.058258 12.17457
235.111572 23.0625
235.196762 4.6
235.374557 13.58036
235.591919 11.50298
235.730179 65.947029
235.858963 13.00152
235.949844 11678.780273
236.029953 82.929359
236.073395 13.59559
236.099503 9.055555
236.119598 50.864861
236.161438 41.711208
236.177444 14.64653
236.216949 49.552078
236.25032 13.45043
236.272034 35.122089
236.315842 25.45833
236.346558 41.42157
236.391769 73.972298
236.444855 85.284477
236.505829 44.961048
236.550522 21.902241
236.58284 8.8125
236.789169 24.66806
236.907303 9.013889
237.068329 5.508929
237.635727 3.541667
237.733398 19.347759
237.850006 19.153851
238.022888 8.45
238.105118 21.025
238.494888 9.145833
258.787537 13.025
259.053131 126.600197
260.03244 45.361698
261.962097 108.360901
262.297058 4.03125
262.793182 17.005951
276.820709 14.50114
278.298645 25.06452
279.727356 11.95924
279.946167 59.444672
279.976837 1530.595947
280.046814 7.946429
280.181335 33.306549
280.27771 9.950658
280.490906 3.505682
280.572479 9.509615
280.887238 22.367649
292.431244 33.762501
322.908173 5.640625
323.139496 3.6
323.166748 2.506944
324.103363 29.59413
325.033997 1661.977051
325.194 15.68
325.219086 10.5875
325.28183 9.5625
325.311462 25.522499
325.360992 8.55388
325.444977 16.245001
325.498779 33.763512
325.56424 8.760417
325.677368 11.7025
325.928406 11.5225
326.852325 16.50139
327.406189 27.240129
328.13031 5.533088
391.902039 7.642857
400.456177 5.104167
865.533386 16.725
951.3927 13.72454
959.99292 13.04735
1124.643799 36.804771

>ms2peaks
101.520042 2.666667
102.046265 1288.052979
102.074623 18.52632
102.088684 3.505682
102.965012 136.561905
103.252853 33.515148
103.293343 22.725
105.125107 8.875
106.066681 51.032612
107.072571 54.555199
108.003799 45.62019
108.0793 102.9758
108.47403 16.550301
109.008583 151.304504
109.884277 7.091912
109.979797 42.241508
110.005051 45.66272
110.017151 51.960041
110.989723 102.954102
111.0149 28.46314
111.027771 7.580357
111.461655 6.5125
111.502197 11.48491
112.064339 26.460461
113.95636 85.010933
114.967003 884.120117
115.078827 11.0296
116.152466 9.001894
116.980942 182.019501
118.039436 37.065441
118.063362 239.191696
119.047752 115.962601
119.072769 100.018204
119.214973 2.75
120.052788 59.112801
120.348679 14.16667
121.010666 919.672974
121.214844 8.1
121.664116 15.02381
122.36422 40.618382
122.544434 12.0504
122.94902 4.004807
122.960922 5.1
123.026215 6535.346191
123.072609 30.50305
123.088043 13.05364
123.129562 34.33675
123.215958 34.860321
123.275597 12.45066
123.315948 10.34615
123.393143 6.011364
123.401146 20.380211
123.44339 13.5
123.505409 30.091721
123.520706 12.53472
123.636772 13.98818
123.672256 11.77885
123.980171 45.07835
124.065666 9.669642
124.337761 24.506941
124.396095 10.86422
125.055557 24.683821
125.508118 3.041667
125.533577 6.5
126.195122 5.504807
126.305099 34.711208
126.402336 8.102273
126.562752 6.015625
126.966301 1746.094971
127.142868 41.62141
127.154732 16.76078
127.236641 24.09091
127.350632 10.00216
127.362411 13.11773
127.625595 8.613426
127.973701 1105.714966
128.008179 52.932362
128.015671 37.79845
128.176514 4.6875
128.223907 7.347222
128.341888 5.0
129.6418 16.699289
129.954987 58.503288
130.960022 83.612503
131.993652 87.92173
132.326523 13.44485
133.012726 332.077301
133.275879 38.264751
133.487762 22.4
133.536575 20.50202
133.63678 10.5125
133.644455 18.125
133.700333 20.360121
133.846344 28.751499
134.018295 8521.049805
134.059784 28.50128
134.080185 224.864105
134.10405 4.543269
134.116455 126.337097
134.124084 6.160714
134.156433 13.0194
134.202637 56.183681
134.220963 46.005459
134.246231 46.24242
134.259277 105.194702
134.274567 49.34222
134.295181 28.82692
134.309601 111.647598
134.322464 50.627258
134.345856 11.84073
134.360168 50.14077
134.405457 108.397499
134.432083 61.052101
134.469467 23.75762
134.486893 103.923698
134.503998 5.625
134.521011 11.34028
134.562256 22.225
134.603363 20.796049
134.640488 21.13224
134.656555 9.033089
134.668823 23.746929
134.712463 28.060049
134.783478 28.92857
134.862885 33.13636
134.967575 23.51103
135.02623 54191.621094
135.142639 43.433929
135.169586 16.503679
135.198181 77.230026
135.246582 22.51613
135.273468 26.7875
135.287521 62.041321
135.328232 76.406853
135.353287 45.357079
135.373032 30.59091
135.398254 56.59301
135.416565 4.5
135.425385 58.229519
135.464005 119.730301
135.515793 26.828951
135.533356 30.164471
135.559448 28.009371
135.571564 93.251907
135.60289 18.993719
135.639908 37.166672
135.66452 15.6
135.73671 52.963009
135.744675 18.48077
135.764938 64.612991
135.822632 27.66766
136.082932 73.630302
136.135208 33.039242
136.168228 40.280682
136.198883 12.2025
136.20726 24.001101
136.231567 33.014709
136.247894 21.328409
136.312729 19.816891
136.359116 15.26087
136.395859 25.62467
136.472427 16.0
136.488281 50.04895
136.544037 39.521278
136.552475 17.19565
136.62291 4.1125
136.639435 26.661819
136.723297 41.101379
136.837692 32.5625
136.947403 7.898026
136.987747 25.51148
137.006821 127.620003
137.037567 70.982239
137.151505 8.45
137.558441 8.0625
137.922867 82.644722
137.958298 19.96314
138.025269 48.002449
138.437103 14.625
138.631073 6.3125
138.686905 12.50298
138.966797 1015.077026
139.017761 26.637501
139.046036 58.524891
139.171631 23.00123
139.307587 6.020833
139.948883 90.760063
140.021744 23.746929
140.978943 29.851351
142.394165 3.0
142.80571 23.0625
143.969101 38.51717
143.991364 68.035873
144.23526 12.63682
144.277039 3.5
144.808212 26.07337
144.97934 86.073982
146.959106 55.18182
148.260681 9.669642
149.517929 13.98818
150.015579 97.934471
150.036819 219.380997
150.192139 69.466164
150.236801 11.0625
150.263214 6.005682
150.271729 5.083333
150.292984 35.505211
150.303665 35.691471
150.323868 14.55114
150.36113 7.002315
150.378387 11.0504
150.411667 16.8288
150.440857 9.766447
150.476486 11.0875
150.604584 10.01607
150.625931 7.125
151.020721 13743.870117
151.073807 13.12132
151.091446 141.973495
151.113449 56.520569
151.127396 119.348503
151.148788 22.660061
151.170959 22.62331
151.20874 133.465897
151.23407 24.341141
151.262894 4.6875
151.298111 28.360121
151.313904 65.328537
151.33429 22.89205
151.355957 19.19643
151.383545 61.73447
151.414276 116.692299
151.448044 25.785721
151.476822 14.68445
151.489624 4.083333
151.516006 2.666667
151.536224 14.03247
151.558197 10.74039
151.570999 7.013889
151.748795 4.9375
151.763794 11.22917
152.019226 70.595108
152.026871 338.742615
152.050507 319.650787
152.172623 22.86607
152.271088 20.023809
152.578629 6.890625
152.708313 25.827209
152.760315 5.225
152.777344 10.3125
152.858612 11.02632
152.914536 11.01607
152.946365 69.724922
152.984085 621.750671
153.034515 182.299194
153.086655 6.582237
153.121689 16.7875
153.18251 33.086811
153.310303 10.875
153.888214 30.02083
153.990784 376.122101
154.091461 5.1
154.276962 13.52083
154.309341 7.6875
154.472961 5.9
154.627457 3.580357
154.961487 1897.953979
154.984268 1191.474976
155.029755 15.02941
155.066635 27.155149
155.094894 8.360119
155.116394 9.575
155.142395 26.125
155.154099 22.971149
155.180923 8.051136
155.202164 22.92614
155.229111 67.639091
155.246384 47.49123
155.285431 6.104167
155.320099 14.77841
155.367004 26.023809
155.389496 12.90179
155.513565 8.704166
155.533875 32.670139
155.602325 29.68976
155.639481 20.28533
155.801682 11.03125
155.969604 3815.589111
156.025146 28.8375
156.046921 25.586889
156.138962 22.612499
156.172211 15.89286
156.188416 14.52083
156.218628 15.09375
156.338501 22.32008
156.429184 15.7849
156.489059 7.180147
157.425842 17.2689
157.531601 16.80179
158.589218 14.23529
159.554138 6.05
165.022217 48.860119
171.954865 53.063549
172.077255 8.0
178.934967 23.54018
179.073669 62.510311
180.997635 19.69231
181.986145 64.116219
182.014633 9.075
182.992233 233.626404
183.034531 6.013889
183.072189 3.5
190.839523 16.648809
190.993744 29.542231
197.739487 7.140625
198.986908 507.463593
199.203979 53.06818
200.321136 18.00403
200.547699 5.502976
201.006668 8.083333
201.953949 20.21607
202.19162 7.0
202.731964 8.0
202.928055 2328.293945
202.99379 15.57122
203.038696 11.02083
203.089539 16.699289
203.132599 12.54656
203.196045 18.125
203.28656 40.778412
203.301208 8.502155
203.334015 7.960227
203.38559 16.80625
203.455017 10.64286
203.660995 5.5
203.695465 42.625
203.77272 9.033334
203.862122 9.535714
213.825882 7.074405
213.99086 50.703701
214.141403 14.51815
214.848679 5.889423
215.007202 1217.102051
215.158234 14.6875
215.181259 9.846154
215.286819 8.725
215.526199 14.44676
215.764801 21.725
216.200745 61.125
216.377075 23.133329
217.637909 23.35417
217.791687 6.05
217.987808 13.95924
218.058746 9.011364
218.199341 26.18042
218.254089 25.632681
218.449371 5.160714
218.619064 12.09879
218.888657 18.71607
218.917664 24.39583
218.94693 6986.728027
219.005936 28.68445
219.029877 2.6125
219.082245 10.03846
219.107986 5.104167
219.13147 35.032261
219.159485 9.6225
219.201859 112.677498
219.238235 32.026138
219.272797 17.5625
219.284683 8.121324
219.319183 2.53125
219.347748 42.04327
219.38266 25.06076
219.412811 22.33456
219.429855 36.595112
219.453491 7.160714
219.490784 34.929169
219.52063 11.48125
219.581009 13.8125
219.611511 44.8064
219.643936 41.908989
219.679962 20.660721
219.735321 32.53849
219.777939 13.62981
220.053467 39.785332
220.257843 11.02632
220.288803 8.504167
220.366486 8.360119
222.891083 5.0
223.325577 12.78409
228.490982 22.160721
234.584625 21.153851
234.657516 15.59191
234.780502 27.308649
235.950134 837.148682
236.15329 34.50066
236.172516 15.44485
236.201035 7.102273
236.297455 15.44055
236.436356 15.64464
236.51236 48.768749
237.931183 33.019291
300.237305 6.0
380.50119 16.075001
1375.437866 14.7875

