>compound Sulfameter M+H
>formula C11H12N4O3S
>parentmass 281.07028769609053
>ionization [M + H]+
>InChI InChI=1S/C11H12N4O3S/c1-18-9-6-13-11(14-7-9)15-19(16,17)10-4-2-8(12)3-5-10/h2-7H,12H2,1H3,(H,13,14,15)
>InChIKey GPTONYMQFTZPKC-UHFFFAOYSA-N
>smiles O=S(=O)(NC1=NC=C(OC)C=N1)C2=CC=C(N)C=C2

>ms2peaks
108.043983 2805.253906
111.043098 81.183861
124.0504 279.655914
125.057838 276.723785
126.066261 4185.421875
156.011337 14870.25
172.071869 84.403297
188.012375 5425.542969
190.095245 79.498962
215.092361 4441.321777
217.107651 588.679504
263.060516 310.812012
279.32486 82.689934
279.359619 70.675522
279.46106 108.648201
279.504578 95.254303
279.543671 78.757347
279.595032 110.703598
281.013092 120.614304
281.070557 70093.953125
281.704926 92.813141
281.730377 74.017387
281.775513 91.50415
281.900574 85.08876

>ms2peaks
107.429886 58.084789
107.655762 46.328419
108.044678 19865.970703
108.178047 41.365318
108.280769 36.38129
108.391754 30.98822
108.497475 29.23645
108.562271 41.821869
109.02607 257.235809
110.034515 220.434204
111.043167 182.226196
118.06543 43.979172
124.049751 1034.166016
124.431122 42.43103
125.058456 1591.713989
125.403145 32.57785
125.477036 33.735649
125.484299 31.57222
126.066315 16398.0
126.212898 30.293289
126.249756 36.478241
126.353584 32.719688
128.012451 42.652382
131.06282 37.059181
143.058746 36.294109
155.172165 29.89855
155.231155 37.334438
155.285294 47.76609
155.31456 48.683769
155.68251 51.4244
156.011581 26902.0
156.388611 33.896999
156.399033 35.652748
156.427826 48.611401
156.487427 61.807529
156.555801 34.872959
156.625229 49.889709
156.642944 28.673691
156.756012 40.73204
158.072449 114.315903
163.082764 27.323429
172.073929 255.261398
185.057724 230.409805
185.076584 57.03653
188.012436 5734.655762
188.081726 58.14986
188.109436 33.2328
188.20932 43.217258
188.265732 48.457481
190.096756 169.249603
200.07254 540.755005
202.082596 74.102783
213.475296 27.34412
215.092438 8636.646484
215.155472 28.519291
215.178802 46.460602
215.243225 29.643681
215.27298 27.88698
215.457504 36.218781
215.472748 55.107021
215.50444 32.386009
215.552872 42.152561
217.108597 734.871582
263.058014 50.295071
281.070282 4336.219238

>ms2peaks
103.040428 39.33094
104.049141 38.548592
106.067444 44.3125
107.575226 30.218229
107.610092 39.352539
108.044533 24356.990234
108.090126 28.583191
108.240646 25.622511
108.264671 42.103909
108.319801 28.502029
108.36528 41.164028
108.457443 57.074139
108.514305 28.160089
108.557709 26.872919
108.586082 30.43869
108.640129 31.20303
109.026497 192.968094
111.042328 3228.194092
111.087219 34.109402
118.052444 138.697205
119.056839 76.081642
124.049927 379.569489
125.0588 426.833008
125.344315 25.00362
125.396095 56.988369
125.649742 30.235701
125.712814 26.13233
126.066086 10482.070312
126.112869 40.766861
126.209183 25.2644
126.260315 32.109741
126.321236 41.277721
126.352257 35.100021
126.361885 25.13356
131.06131 55.46957
132.053146 31.506941
132.065628 40.99847
144.054718 37.84903
145.062607 143.355606
147.07869 33.671879
148.077652 26.078951
156.011642 411.635498
157.06398 249.457306
171.067062 28.143009
172.073715 4193.526855
172.305542 25.389851
174.06311 45.85186
185.079971 35.313759
186.065323 52.913601
187.095078 36.55545
188.079498 27.383089
198.063858 120.238899
200.068222 523.342529
202.084015 31.80682
215.093857 307.872192

